===========================================
AVERAGE#::1  
SAMPLING DELAY::50 
SET POINT(V)::2.500000 
BARRIER1=0.000000              BARRIER2=0.000000
Zfor        I          Zback        I 
 
===========================================
0.000000   2.514587   0.000000   2.415527 
19.531250   2.473663   19.531250   2.392548 
39.062500   2.472198   39.062500   2.420013 
58.593750   2.493073   58.593750   2.404816 
78.125000   2.461487   78.125000   2.365082 
97.656250   2.440704   97.656250   2.375519 
117.187500   2.458923   117.187500   2.384216 
136.718750   2.448578   136.718750   2.343201 
156.250000   2.411133   156.250000   2.330750 
175.781250   2.420837   175.781250   2.358582 
195.312500   2.433289   195.312500   2.331482 
214.843750   2.395020   214.843750   2.297150 
234.375000   2.385223   234.375000   2.320038 
253.906250   2.404999   253.906250   2.317200 
273.437500   2.383667   273.437500   2.276001 
292.968750   2.355103   292.968750   2.273804 
312.500000   2.371857   312.500000   2.296326 
332.031250   2.373047   332.031250   2.260895 
351.562500   2.331116   351.562500   2.235077 
371.093750   2.332672   371.093750   2.263000 
390.625000   2.349976   390.625000   2.250000 
410.156250   2.318848   410.156250   2.209991 
429.687500   2.300537   429.687500   2.220886 
449.218750   2.318390   449.218750   2.232697 
468.750000   2.310608   468.750000   2.192505 
488.281250   2.271423   488.281250   2.178680 
507.812500   2.284058   507.812500   2.208710 
527.343750   2.294128   527.343750   2.181793 
546.875000   2.255493   546.875000   2.148376 
566.406250   2.248810   566.406250   2.170441 
585.937500   2.267944   585.937500   2.171448 
605.468750   2.248810   605.468750   2.131073 
625.000000   2.217957   625.000000   2.130707 
644.531250   2.237274   644.531250   2.152588 
664.062500   2.238831   664.062500   2.115784 
683.593750   2.195984   683.593750   2.094452 
703.125000   2.199188   703.125000   2.118805 
722.656250   2.217133   722.656250   2.109741 
742.187500   2.186737   742.187500   2.071381 
761.718750   2.166870   761.718750   2.081085 
781.250000   2.187836   781.250000   2.091980 
800.781250   2.179596   800.781250   2.054352 
820.312500   2.138580   820.312500   2.043457 
839.843750   2.154694   839.843750   2.069183 
859.375000   2.166687   859.375000   2.044373 
878.906250   2.125214   878.906250   2.017822 
898.437500   2.119171   898.437500   2.032837 
917.968750   2.140137   917.968750   2.035767 
937.500000   2.119720   937.500000   2.000427 
957.031250   2.089325   957.031250   1.998779 
976.562500   2.111847   976.562500   2.016266 
996.093750   2.112030   996.093750   1.986237 
1015.625000   2.069275   1015.625000   1.969299 
1035.156250   2.074310   1035.156250   1.985413 
1054.687500   2.092438   1054.687500   1.979187 
1074.218750   2.062042   1074.218750   1.949982 
1093.750000   2.042816   1093.750000   1.954285 
1113.281250   2.066620   1113.281250   1.962799 
1132.812500   2.056366   1132.812500   1.934235 
1152.343750   2.016907   1152.343750   1.924713 
1171.875000   2.031647   1171.875000   1.940826 
1191.406250   2.043640   1191.406250   1.925079 
1210.937500   2.006653   1210.937500   1.902191 
1230.468750   1.998962   1230.468750   1.912445 
1250.000000   2.019745   1250.000000   1.913086 
1269.531250   2.001434   1269.531250   1.886536 
1289.062500   1.971680   1289.062500   1.884338 
1308.593750   1.991180   1308.593750   1.897064 
1328.125000   1.992920   1328.125000   1.875824 
1347.656250   1.955292   1347.656250   1.858887 
1367.187500   1.956940   1367.187500   1.872070 
1386.718750   1.975616   1386.718750   1.881226 
1406.250000   1.949890   1406.250000   1.886719 
1425.781250   1.930206   1425.781250   1.894684 
1445.312500   1.950256   1445.312500   1.892120 
1464.843750   1.941467   1464.843750   1.884888 
1484.375000   1.911072   1484.375000   1.891205 
1503.906250   1.917389   1503.906250   1.893951 
1523.437500   1.930939   1523.437500   1.886169 
1542.968750   1.901001   1542.968750   1.887543 
1562.500000   1.892487   1562.500000   1.894775 
1582.031250   1.909424   1582.031250   1.889740 
1601.562500   1.892487   1601.562500   1.885254 
1621.093750   1.871155   1621.093750   1.892487 
1640.625000   1.883514   1640.625000   1.893311 
1660.156250   1.885345   1660.156250   1.885529 
1679.687500   1.855957   1679.687500   1.889557 
1699.218750   1.853851   1699.218750   1.894775 
1718.750000   1.867493   1718.750000   1.888367 
1738.281250   1.846802   1738.281250   1.886444 
1757.812500   1.832520   1757.812500   1.893768 
1777.343750   1.847076   1777.343750   1.891388 
1796.875000   1.838928   1796.875000   1.884888 
1816.406250   1.815308   1816.406250   1.891205 
1835.937500   1.820160   1835.937500   1.894226 
1855.468750   1.828674   1855.468750   1.887268 
1875.000000   1.805695   1875.000000   1.888733 
1894.531250   1.798462   1894.531250   1.895233 
1914.062500   1.810822   1914.062500   1.890472 
1933.593750   1.798279   1933.593750   1.885986 
1953.125000   1.779785   1953.125000   1.893860 
1972.656250   1.788940   1972.656250   1.893860 
1992.187500   1.789490   1992.187500   1.886719 
2011.718750   1.766693   2011.718750   1.890656 
2031.250000   1.765045   2031.250000   1.895416 
2050.781250   1.775391   2050.781250   1.889374 
2070.312500   1.759460   2070.312500   1.887817 
2089.843750   1.746460   2089.843750   1.895233 
2109.375000   1.757080   2109.375000   1.893036 
2128.906250   1.751312   2128.906250   1.887360 
2148.437500   1.729889   2148.437500   1.893860 
2167.968750   1.734009   2167.968750   1.895782 
2187.500000   1.741699   2187.500000   1.889191 
2207.031250   1.722198   2207.031250   1.890564 
2226.562500   1.715240   2226.562500   1.896973 
2246.093750   1.724945   2246.093750   1.892487 
2265.625000   1.715424   2265.625000   1.889008 
2285.156250   1.697845   2285.156250   1.896423 
2304.687500   1.706635   2304.687500   1.895599 
2324.218750   1.707642   2324.218750   1.888824 
2343.750000   1.686310   2343.750000   1.893768 
2363.281250   1.685577   2363.281250   1.897980 
2382.812500   1.694824   2382.812500   1.892303 
2402.343750   1.679077   2402.343750   1.890930 
2421.875000   1.666901   2421.875000   1.898346 
2441.406250   1.677429   2441.406250   1.895874 
2460.937500   1.673492   2460.937500   1.890015 
2480.468750   1.651794   2480.468750   1.896606 
2500.000000   1.656189   2500.000000   1.898254 
2519.531250   1.662872   2519.531250   1.892212 
2539.062500   1.643921   2539.062500   1.894043 
2558.593750   1.638153   2558.593750   1.900177 
2578.125000   1.648407   2578.125000   1.895691 
2597.656250   1.638885   2597.656250   1.891846 
2617.187500   1.620392   2617.187500   1.899719 
2636.718750   1.628906   2636.718750   1.899170 
2656.250000   1.630371   2656.250000   1.892761 
2675.781250   1.609406   2675.781250   1.896606 
2695.312500   1.608673   2695.312500   1.901184 
2714.843750   1.618927   2714.843750   1.895142 
2734.375000   1.605103   2734.375000   1.894318 
2753.906250   1.592102   2753.906250   1.901642 
2773.437500   1.602173   2773.437500   1.898895 
2792.968750   1.598236   2792.968750   1.893585 
2812.500000   1.577454   2812.500000   1.899536 
2832.031250   1.581848   2832.031250   1.901184 
2851.562500   1.589172   2851.562500   1.894684 
2871.093750   1.571686   2871.093750   1.896240 
2890.625000   1.564270   2890.625000   1.902740 
2910.156250   1.574890   2910.156250   1.898346 
2929.687500   1.565643   2929.687500   1.894409 
2949.218750   1.547791   2949.218750   1.901367 
2968.750000   1.556671   2968.750000   1.901093 
2988.281250   1.558594   2988.281250   1.894501 
3007.812500   1.537628   3007.812500   1.899170 
3027.343750   1.535889   3027.343750   1.903381 
3046.875000   1.545319   3046.875000   1.897614 
3066.406250   1.531769   3066.406250   1.895416 
3085.937500   1.518127   3085.937500   1.902374 
3105.468750   1.528839   3105.468750   1.900085 
3125.000000   1.525726   3125.000000   1.894409 
3144.531250   1.504486   3144.531250   1.900452 
3164.062500   1.507965   3164.062500   1.902832 
3183.593750   1.515198   3183.593750   1.896149 
3203.125000   1.498169   3203.125000   1.897247 
3222.656250   1.489563   3222.656250   1.903473 
3242.187500   1.500824   3242.187500   1.899261 
3261.718750   1.493042   3261.718750   1.894684 
3281.250000   1.473907   3281.250000   1.902100 
3300.781250   1.481415   3300.781250   1.902100 
3320.312500   1.484985   3320.312500   1.895599 
3339.843750   1.464294   3339.843750   1.899445 
3359.375000   1.461090   3359.375000   1.903839 
3378.906250   1.471069   3378.906250   1.897522 
3398.437500   1.458344   3398.437500   1.895782 
3417.968750   1.443329   3417.968750   1.902924 
3437.500000   1.453857   3437.500000   1.900543 
3457.031250   1.451935   3457.031250   1.894135 
3476.562500   1.431152   3476.562500   1.900085 
3496.093750   1.432983   3496.093750   1.902557 
3515.625000   1.441498   3515.625000   1.895782 
3535.156250   1.424377   3535.156250   1.896423 
3554.687500   1.414948   3554.687500   1.902740 
3574.218750   1.426392   3574.218750   1.898163 
3593.750000   1.418427   3593.750000   1.894501 
3613.281250   1.399292   3613.281250   1.902100 
3632.812500   1.406891   3632.812500   1.901642 
3652.343750   1.410187   3652.343750   1.894592 
3671.875000   1.389404   3671.875000   1.897980 
3691.406250   1.384552   3691.406250   1.902191 
3710.937500   1.395081   3710.937500   1.895691 
3730.468750   1.382172   3730.468750   1.894226 
3750.000000   1.366058   3750.000000   1.901642 
3769.531250   1.376678   3769.531250   1.899170 
3789.062500   1.375397   3789.062500   1.893036 
3808.593750   1.353607   3808.593750   1.898987 
3828.125000   1.354431   3828.125000   1.901550 
3847.656250   1.363678   3847.656250   1.894958 
3867.187500   1.346924   3867.187500   1.895508 
3886.718750   1.336212   3886.718750   1.901642 
3906.250000   1.347015   3906.250000   1.897156 
3925.781250   1.353973   3925.781250   1.892487 
3945.312500   1.892487   3945.312500   1.899719 
3964.843750   1.888916   3964.843750   1.899902 
3984.375000   1.896240   3984.375000   1.893127 
4003.906250   1.896973   4003.906250   1.896515 
4023.437500   1.889374   4023.437500   1.901367 
4042.968750   1.893585   4042.968750   1.895325 
4062.500000   1.897888   4062.500000   1.893127 
4082.031250   1.891388   4082.031250   1.899902 
4101.562500   1.889923   4101.562500   1.897522 
4121.093750   1.897064   4121.093750   1.891663 
4140.625000   1.894867   4140.625000   1.897247 
4160.156250   1.888824   4160.156250   1.899902 
4179.687500   1.895325   4179.687500   1.893127 
4199.218750   1.897430   4199.218750   1.893951 
4218.750000   1.889648   4218.750000   1.900177 
4238.281250   1.891113   4238.281250   1.896240 
4257.812500   1.896606   4257.812500   1.891846 
4277.343750   1.892029   4277.343750   1.898163 
4296.875000   1.888367   4296.875000   1.897797 
4316.406250   1.895142   4316.406250   1.891205 
4335.937500   1.895691   4335.937500   1.894501 
4355.468750   1.888550   4355.468750   1.899170 
4375.000000   1.892029   4375.000000   1.893768 
4394.531250   1.896149   4394.531250   1.891846 
4414.062500   1.890106   4414.062500   1.898254 
4433.593750   1.888641   4433.593750   1.895691 
4453.125000   1.895508   4453.125000   1.890106 
4472.656250   1.893219   4472.656250   1.896057 
4492.187500   1.886719   4492.187500   1.899078 
4511.718750   1.892487   4511.718750   1.892395 
4531.250000   1.895966   4531.250000   1.893219 
4550.781250   1.889008   4550.781250   1.899170 
4570.312500   1.889648   4570.312500   1.894684 
4589.843750   1.895599   4589.843750   1.891022 
4609.375000   1.891388   4609.375000   1.897614 
4628.906250   1.886902   4628.906250   1.897705 
4648.437500   1.894226   4648.437500   1.891479 
4667.968750   1.894867   4667.968750   1.894684 
4687.500000   1.887817   4687.500000   1.898987 
4707.031250   1.891846   4707.031250   1.893677 
4726.562500   1.896332   4726.562500   1.891846 
4746.093750   1.890015   4746.093750   1.898987 
4765.625000   1.888092   4765.625000   1.896606 
4785.156250   1.894684   4785.156250   1.890747 
4804.687500   1.893494   4804.687500   1.896240 
4824.218750   1.886993   4824.218750   1.898438 
4843.750000   1.892578   4843.750000   1.892578 
4863.281250   1.895416   4863.281250   1.893768 
4882.812500   1.888458   4882.812500   1.900177 
4902.343750   1.889648   4902.343750   1.895691 
4921.875000   1.895691   4921.875000   1.891937 
4941.406250   1.892395   4941.406250   1.898071 
4960.937500   1.887451   4960.937500   1.898346 
4980.468750   1.893585   4980.468750   1.892303 
5000.000000   1.894775   5000.000000   1.895966 
5019.531250   1.887909   5019.531250   1.900726 
5039.062500   1.890839   5039.062500   1.895599 
5058.593750   1.895233   5058.593750   1.893402 
5078.125000   1.890472   5078.125000   1.900085 
5097.656250   1.888458   5097.656250   1.898071 
5117.187500   1.894867   5117.187500   1.893311 
5136.718750   1.894135   5136.718750   1.898895 
5156.250000   1.888000   5156.250000   1.900818 
5175.781250   1.892761   5175.781250   1.894684 
5195.312500   1.895599   5195.312500   1.896149 
5214.843750   1.889557   5214.843750   1.901733 
5234.375000   1.890198   5234.375000   1.897888 
5253.906250   1.896057   5253.906250   1.894592 
5273.437500   1.893585   5273.437500   1.900726 
5292.968750   1.888275   5292.968750   1.900909 
5312.500000   1.894318   5312.500000   1.895050 
5332.031250   1.895782   5332.031250   1.898804 
5351.562500   1.889374   5351.562500   1.902924 
5371.093750   1.891846   5371.093750   1.897522 
5390.625000   1.896973   5390.625000   1.896332 
5410.156250   1.892578   5410.156250   1.903290 
5429.687500   1.889923   5429.687500   1.901184 
5449.218750   1.896515   5449.218750   1.896515 
5468.750000   1.896515   5468.750000   1.901459 
5488.281250   1.890289   5488.281250   1.903107 
5507.812500   1.895325   5507.812500   1.897156 
5527.343750   1.898804   5527.343750   1.898895 
5546.875000   1.892487   5546.875000   1.904663 
5566.406250   1.891937   5566.406250   1.900909 
5585.937500   1.898254   5585.937500   1.897247 
5605.468750   1.895966   5605.468750   1.903564 
5625.000000   1.891022   5625.000000   1.903107 
5644.531250   1.896881   5644.531250   1.897156 
5664.062500   1.899353   5664.062500   1.901001 
5683.593750   1.893494   5683.593750   1.905304 
5703.125000   1.895325   5703.125000   1.900543 
5722.656250   1.900635   5722.656250   1.898163 
5742.187500   1.896698   5742.187500   1.904846 
5761.718750   1.893311   5761.718750   1.902740 
5781.250000   1.898895   5781.250000   1.897614 
5800.781250   1.899353   5800.781250   1.903198 
5820.312500   1.893494   5820.312500   1.905670 
5839.843750   1.897705   5839.843750   1.899811 
5859.375000   1.901459   5859.375000   1.901093 
5878.906250   1.896240   5878.906250   1.906769 
5898.437500   1.895782   5898.437500   1.902466 
5917.968750   1.901550   5917.968750   1.898438 
5937.500000   1.900177   5937.500000   1.905121 
5957.031250   1.894318   5957.031250   1.904938 
5976.562500   1.899902   5976.562500   1.899261 
5996.093750   1.902557   5996.093750   1.902374 
6015.625000   1.896606   6015.625000   1.907135 
6035.156250   1.897980   6035.156250   1.901825 
6054.687500   1.902832   6054.687500   1.899353 
6074.218750   1.899536   6074.218750   1.906403 
6093.750000   1.895966   6093.750000   1.904663 
6113.281250   1.901550   6113.281250   1.898987 
6132.812500   1.902374   6132.812500   1.904022 
6152.343750   1.895874   6152.343750   1.906494 
6171.875000   1.899719   6171.875000   1.900360 
6191.406250   1.903656   6191.406250   1.900452 
6210.937500   1.898163   6210.937500   1.906586 
6230.468750   1.896973   6230.468750   1.903290 
6250.000000   1.903656   6250.000000   1.898804 
6269.531250   1.902466   6269.531250   1.905212 
6289.062500   1.896698   6289.062500   1.905212 
6308.593750   1.901825   6308.593750   1.898987 
6328.125000   1.904846   6328.125000   1.901917 
6347.656250   1.897888   6347.656250   1.906494 
6367.187500   1.899078   6367.187500   1.900818 
6386.718750   1.904938   6386.718750   1.898529 
6406.250000   1.901276   6406.250000   1.905487 
6425.781250   1.897797   6425.781250   1.903748 
6445.312500   1.903564   6445.312500   1.897980 
6464.843750   1.904022   6464.843750   1.903381 
6484.375000   1.897064   6484.375000   1.905579 
6503.906250   1.900726   6503.906250   1.899902 
6523.437500   1.905029   6523.437500   1.899719 
6542.968750   1.899811   6542.968750   1.905212 
6562.500000   1.898163   6562.500000   1.901733 
6582.031250   1.904114   6582.031250   1.896973 
6601.562500   1.902100   6601.562500   1.903381 
6621.093750   1.895966   6621.093750   1.904205 
6640.625000   1.901367   6640.625000   1.897064 
6660.156250   1.903931   6660.156250   1.899994 
6679.687500   1.897430   6679.687500   1.905029 
6699.218750   1.898712   6699.218750   1.899170 
6718.750000   1.903931   6718.750000   1.896790 
6738.281250   1.899811   6738.281250   1.903656 
6757.812500   1.895874   6757.812500   1.901917 
6777.343750   1.902283   6777.343750   1.895874 
6796.875000   1.902557   6796.875000   1.900085 
6816.406250   1.895874   6816.406250   1.902466 
6835.937500   1.899719   6835.937500   1.896515 
6855.468750   1.903564   6855.468750   1.897064 
6875.000000   1.897522   6875.000000   1.903290 
6894.531250   1.895599   6894.531250   1.899902 
6914.062500   1.903015   6914.062500   1.894684 
6933.593750   1.901093   6933.593750   1.901093 
6953.125000   1.895050   6953.125000   1.901459 
6972.656250   1.900543   6972.656250   1.895233 
6992.187500   1.902924   6992.187500   1.897705 
7011.718750   1.896149   7011.718750   1.902924 
7031.250000   1.897064   7031.250000   1.897614 
7050.781250   1.902832   7050.781250   1.894592 
7070.312500   1.899078   7070.312500   1.900909 
7089.843750   1.894409   7089.843750   1.899261 
7109.375000   1.900543   7109.375000   1.893951 
7128.906250   1.901276   7128.906250   1.898621 
7148.437500   1.893677   7148.437500   1.901276 
7167.968750   1.896973   7167.968750   1.895325 
7187.500000   1.901917   7187.500000   1.894867 
7207.031250   1.896332   7207.031250   1.901276 
7226.562500   1.894684   7226.562500   1.897430 
7246.093750   1.901001   7246.093750   1.892944 
7265.625000   1.898804   7265.625000   1.899078 
7285.156250   1.892761   7285.156250   1.899536 
7304.687500   1.897614   7304.687500   1.892944 
7324.218750   1.901001   7324.218750   1.895416 
7343.750000   1.894135   7343.750000   1.900269 
7363.281250   1.894592   7363.281250   1.895599 
7382.812500   1.900909   7382.812500   1.892578 
7402.343750   1.896698   7402.343750   1.899445 
7421.875000   1.892120   7421.875000   1.897980 
7441.406250   1.898071   7441.406250   1.892212 
7460.937500   1.899261   7460.937500   1.896423 
7480.468750   1.892944   7480.468750   1.899445 
7500.000000   1.895782   7500.000000   1.894135 
7519.531250   1.900085   7519.531250   1.893768 
7539.062500   1.894775   7539.062500   1.899902 
7558.593750   1.892578   7558.593750   1.896606 
7578.125000   1.898621   7578.125000   1.891846 
7597.656250   1.897705   7597.656250   1.897705 
7617.187500   1.891571   7617.187500   1.898529 
7636.718750   1.896515   7636.718750   1.892395 
7656.250000   1.899628   7656.250000   1.894775 
7675.781250   1.893677   7675.781250   1.900085 
7695.312500   1.893677   7695.312500   1.895050 
7714.843750   1.899261   7714.843750   1.892761 
7734.375000   1.895966   7734.375000   1.899170 
7753.906250   1.891479   7753.906250   1.897430 
7773.437500   1.897339   7773.437500   1.891846 
7792.968750   1.899078   7792.968750   1.896881 
7812.500000   1.891754   7812.500000   1.899902 
7832.031250   1.894775   7832.031250   1.894135 
7851.562500   1.899536   7851.562500   1.894318 
7871.093750   1.894958   7871.093750   1.900360 
7890.625000   1.892395   7890.625000   1.896606 
7910.156250   1.898804   7910.156250   1.892578 
7929.687500   1.898071   7929.687500   1.898804 
7949.218750   1.891663   7949.218750   1.899445 
7968.750000   1.896057   7968.750000   1.893768 
7988.281250   1.899353   7988.281250   1.896332 
8007.812500   1.893219   8007.812500   1.900452 
8027.343750   1.893494   8027.343750   1.895416 
8046.875000   1.899078   8046.875000   1.893402 
8066.406250   1.896606   8066.406250   1.900635 
8085.937500   1.891571   8085.937500   1.898712 
8105.468750   1.896790   8105.468750   1.893494 
8125.000000   1.898804   8125.000000   1.898804 
8144.531250   1.892029   8144.531250   1.901550 
8164.062500   1.894135   8164.062500   1.896240 
8183.593750   1.898987   8183.593750   1.896332 
8203.125000   1.894958   8203.125000   1.902283 
8222.656250   1.892212   8222.656250   1.899353 
8242.187500   1.898346   8242.187500   1.895233 
8261.718750   1.898712   8261.718750   1.901459 
8281.250000   1.892303   8281.250000   1.901459 
8300.781250   1.896698   8300.781250   1.896240 
8320.312500   1.900177   8320.312500   1.898987 
8339.843750   1.894684   8339.843750   1.903748 
8359.375000   1.894226   8359.375000   1.898529 
8378.906250   1.899902   8378.906250   1.896698 
8398.437500   1.898529   8398.437500   1.903290 
8417.968750   1.893585   8417.968750   1.901917 
8437.500000   1.898712   8437.500000   1.896698 
8457.031250   1.901093   8457.031250   1.901733 
8476.562500   1.895142   8476.562500   1.904663 
8496.093750   1.896606   8496.093750   1.898987 
8515.625000   1.902557   8515.625000   1.899170 
8535.156250   1.898712   8535.156250   1.905396 
8554.687500   1.896149   8554.687500   1.901917 
8574.218750   1.901642   8574.218750   1.898621 
8593.750000   1.902374   8593.750000   1.905029 
8613.281250   1.896149   8613.281250   1.905396 
8632.812500   1.899994   8632.812500   1.900085 
8652.343750   1.903564   8652.343750   1.902557 
8671.875000   1.898804   8671.875000   1.906586 
8691.406250   1.898163   8691.406250   1.901917 
8710.937500   1.904022   8710.937500   1.900177 
8730.468750   1.902740   8730.468750   1.906769 
8750.000000   1.897705   8750.000000   1.905304 
8769.531250   1.902100   8769.531250   1.901001 
8789.062500   1.904846   8789.062500   1.905121 
8808.593750   1.898529   8808.593750   1.907684 
8828.125000   1.899719   8828.125000   1.902374 
8847.656250   1.905579   8847.656250   1.902740 
8867.187500   1.902283   8867.187500   1.908966 
8886.718750   1.898987   8886.718750   1.905579 
8906.250000   1.904572   8906.250000   1.902100 
8925.781250   1.905945   8925.781250   1.907959 
8945.312500   1.900177   8945.312500   1.908783 
8964.843750   1.903564   8964.843750   1.902740 
8984.375000   1.907867   8984.375000   1.904846 
9003.906250   1.902832   9003.906250   1.909698 
9023.437500   1.901825   9023.437500   1.905212 
9042.968750   1.907135   9042.968750   1.903015 
9062.500000   1.906219   9062.500000   1.909607 
9082.031250   1.901184   9082.031250   1.908508 
9101.562500   1.905762   9101.562500   1.903015 
9121.093750   1.909058   9121.093750   1.907410 
9140.625000   1.902832   9140.625000   1.911072 
9160.156250   1.904022   9160.156250   1.905762 
9179.687500   1.909515   9179.687500   1.905853 
9199.218750   1.906128   9199.218750   1.911530 
9218.750000   1.902466   9218.750000   1.908234 
9238.281250   1.908051   9238.281250   1.904572 
9257.812500   1.909424   9257.812500   1.910248 
9277.343750   1.902649   9277.343750   1.911072 
9296.875000   1.905762   9296.875000   1.905670 
9316.406250   1.910248   9316.406250   1.907593 
9335.937500   1.905121   9335.937500   1.912628 
9355.468750   1.904114   9355.468750   1.907593 
9375.000000   1.910248   9375.000000   1.904755 
9394.531250   1.908325   9394.531250   1.911530 
9414.062500   1.902832   9414.062500   1.910522 
9433.593750   1.907867   9433.593750   1.904480 
9453.125000   1.910980   9453.125000   1.908417 
9472.656250   1.904205   9472.656250   1.911804 
9492.187500   1.905487   9492.187500   1.905579 
9511.718750   1.910614   9511.718750   1.904755 
9531.250000   1.907227   9531.250000   1.911255 
9550.781250   1.903564   9550.781250   1.908508 
9570.312500   1.909058   9570.312500   1.903931 
9589.843750   1.910248   9589.843750   1.908966 
9609.375000   1.903564   9609.375000   1.910339 
9628.906250   1.906769   9628.906250   1.904297 
9648.437500   1.911163   9648.437500   1.906036 
9667.968750   1.905487   9667.968750   1.911621 
9687.500000   1.903564   9687.500000   1.907043 
9707.031250   1.909698   9707.031250   1.903107 
9726.562500   1.908783   9726.562500   1.909698 
9746.093750   1.902740   9746.093750   1.908691 
9765.625000   1.907318   9765.625000   1.902740 
9785.156250   1.910339   9785.156250   1.906128 
9804.687500   1.903107   9804.687500   1.909790 
9824.218750   1.904022   9824.218750   1.904297 
9843.750000   1.909790   9843.750000   1.903290 
9863.281250   1.906403   9863.281250   1.909241 
9882.812500   1.902374   9882.812500   1.906586 
9902.343750   1.907959   9902.343750   1.901184 
9921.875000   1.908875   9921.875000   1.906860 
9941.406250   1.901733   9941.406250   1.908691 
9960.937500   1.904938   9960.937500   1.902557 
9980.468750   1.909332   9980.468750   1.903656 

